Angle,Intensity
20,814
20.0102,809
20.0204,786
20.0306,793
20.0408,779
20.051,795
20.0612,791
20.0714,758
20.0815,792
20.0917,741
20.1019,837
20.1121,829
20.1223,787
20.1325,784
20.1427,749
20.1529,785
20.1631,829
20.1733,792
20.1835,817
20.1937,751
20.2039,779
20.2141,746
20.2242,807
20.2344,753
20.2446,803
20.2548,747
20.265,815
20.2752,775
20.2854,727
20.2956,781
20.3058,794
20.316,789
20.3262,774
20.3364,811
20.3466,828
20.3568,749
20.3669,809
20.3771,731
20.3873,766
20.3975,804
20.4077,726
20.4179,841
20.4281,802
20.4383,838
20.4485,811
20.4587,792
20.4689,778
20.4791,799
20.4893,745
20.4995,796
20.5096,790
20.5198,775
20.53,746
20.5402,725
20.5504,780
20.5606,790
20.5708,769
20.581,730
20.5912,795
20.6014,765
20.6116,757
20.6218,780
20.632,812
20.6422,757
20.6523,775
20.6625,735
20.6727,739
20.6829,727
20.6931,756
20.7033,778
20.7135,719
20.7237,720
20.7339,787
20.7441,737
20.7543,771
20.7645,750
20.7747,778
20.7849,729
20.795,768
20.8052,743
20.8154,747
20.8256,738
20.8358,720
20.846,706
20.8562,761
20.8664,794
20.8766,765
20.8868,746
20.897,798
20.9072,754
20.9174,795
20.9276,775
20.9377,759
20.9479,779
20.9581,764
20.9683,707
20.9785,691
20.9887,753
20.9989,736
21.0091,733
21.0193,777
21.0295,700
21.0397,745
21.0499,753
21.0601,756
21.0703,737
21.0804,727
21.0906,716
21.1008,764
21.111,782
21.1212,701
21.1314,757
21.1416,759
21.1518,720
21.162,729
21.1722,765
21.1824,727
21.1926,716
21.2028,733
21.213,693
21.2231,709
21.2333,717
21.2435,718
21.2537,730
21.2639,705
21.2741,732
21.2843,748
21.2945,712
21.3047,753
21.3149,735
21.3251,713
21.3353,731
21.3455,704
21.3557,710
21.3658,737
21.376,704
21.3862,743
21.3964,689
21.4066,723
21.4168,729
21.427,729
21.4372,700
21.4474,712
21.4576,744
21.4678,751
21.478,705
21.4882,693
21.4984,693
21.5085,726
21.5187,726
21.5289,698
21.5391,678
21.5493,697
21.5595,689
21.5697,677
21.5799,714
21.5901,754
21.6003,706
21.6105,716
21.6207,719
21.6309,752
21.6411,704
21.6512,719
21.6614,677
21.6716,700
21.6818,683
21.692,698
21.7022,712
21.7124,730
21.7226,699
21.7328,664
21.743,698
21.7532,672
21.7634,694
21.7736,709
21.7838,663
21.7939,709
21.8041,728
21.8143,702
21.8245,699
21.8347,692
21.8449,679
21.8551,690
21.8653,690
21.8755,680
21.8857,737
21.8959,679
21.9061,680
21.9163,683
21.9265,718
21.9366,697
21.9468,677
21.957,698
21.9672,676
21.9774,631
21.9876,730
21.9978,689
22.008,682
22.0182,662
22.0284,695
22.0386,689
22.0488,693
22.059,715
22.0692,670
22.0793,635
22.0895,683
22.0997,714
22.1099,685
22.1201,670
22.1303,644
22.1405,702
22.1507,660
22.1609,657
22.1711,679
22.1813,682
22.1915,688
22.2017,666
22.2119,679
22.222,681
22.2322,675
22.2424,694
22.2526,653
22.2628,696
22.273,650
22.2832,607
22.2934,687
22.3036,662
22.3138,661
22.324,688
22.3342,669
22.3444,653
22.3546,650
22.3647,646
22.3749,696
22.3851,650
22.3953,681
22.4055,650
22.4157,651
22.4259,655
22.4361,585
22.4463,659
22.4565,643
22.4667,705
22.4769,662
22.4871,694
22.4973,616
22.5074,668
22.5176,652
22.5278,664
22.538,640
22.5482,713
22.5584,628
22.5686,658
22.5788,653
22.589,615
22.5992,648
22.6094,692
22.6196,655
22.6298,662
22.64,612
22.6501,618
22.6603,642
22.6705,638
22.6807,618
22.6909,634
22.7011,629
22.7113,667
22.7215,672
22.7317,653
22.7419,607
22.7521,635
22.7623,623
22.7725,600
22.7827,604
22.7928,646
22.803,673
22.8132,655
22.8234,593
22.8336,630
22.8438,625
22.854,604
22.8642,624
22.8744,664
22.8846,620
22.8948,604
22.905,626
22.9152,664
22.9254,664
22.9355,642
22.9457,639
22.9559,621
22.9661,598
22.9763,616
22.9865,632
22.9967,645
23.0069,612
23.0171,641
23.0273,600
23.0375,644
23.0477,615
23.0579,610
23.0681,597
23.0782,624
23.0884,629
23.0986,615
23.1088,641
23.119,617
23.1292,647
23.1394,650
23.1496,630
23.1598,650
23.17,647
23.1802,614
23.1904,651
23.2006,646
23.2108,554
23.2209,615
23.2311,604
23.2413,632
23.2515,646
23.2617,597
23.2719,630
23.2821,652
23.2923,589
23.3025,599
23.3127,599
23.3229,600
23.3331,622
23.3433,622
23.3535,625
23.3636,545
23.3738,640
23.384,573
23.3942,586
23.4044,592
23.4146,649
23.4248,570
23.435,574
23.4452,639
23.4554,566
23.4656,575
23.4758,587
23.486,595
23.4962,623
23.5063,587
23.5165,614
23.5267,593
23.5369,655
23.5471,623
23.5573,643
23.5675,624
23.5777,618
23.5879,587
23.5981,579
23.6083,618
23.6185,602
23.6287,628
23.6389,624
23.649,564
23.6592,609
23.6694,610
23.6796,600
23.6898,638
23.7,575
23.7102,533
23.7204,667
23.7306,581
23.7408,611
23.751,592
23.7612,568
23.7714,587
23.7816,630
23.7917,581
23.8019,612
23.8121,618
23.8223,591
23.8325,567
23.8427,616
23.8529,599
23.8631,612
23.8733,591
23.8835,623
23.8937,630
23.9039,618
23.9141,590
23.9243,546
23.9344,609
23.9446,583
23.9548,588
23.965,572
23.9752,625
23.9854,590
23.9956,633
24.0058,605
24.016,552
24.0262,566
24.0364,563
24.0466,582
24.0568,602
24.067,588
24.0771,606
24.0873,581
24.0975,568
24.1077,614
24.1179,603
24.1281,609
24.1383,600
24.1485,597
24.1587,561
24.1689,607
24.1791,616
24.1893,632
24.1995,635
24.2097,610
24.2198,600
24.23,653
24.2402,610
24.2504,615
24.2606,582
24.2708,603
24.281,655
24.2912,641
24.3014,597
24.3116,619
24.3218,639
24.332,587
24.3422,631
24.3524,612
24.3625,630
24.3727,634
24.3829,590
24.3931,611
24.4033,633
24.4135,610
24.4237,578
24.4339,627
24.4441,650
24.4543,606
24.4645,643
24.4747,607
24.4849,613
24.4951,642
24.5052,610
24.5154,599
24.5256,624
24.5358,645
24.546,649
24.5562,613
24.5664,640
24.5766,666
24.5868,597
24.597,636
24.6072,672
24.6174,664
24.6276,661
24.6378,674
24.6479,667
24.6581,643
24.6683,606
24.6785,653
24.6887,632
24.6989,660
24.7091,720
24.7193,643
24.7295,637
24.7397,689
24.7499,654
24.7601,645
24.7703,639
24.7805,666
24.7906,645
24.8008,669
24.811,652
24.8212,609
24.8314,728
24.8416,681
24.8518,684
24.862,707
24.8722,679
24.8824,712
24.8926,669
24.9028,695
24.913,661
24.9232,703
24.9333,671
24.9435,658
24.9537,703
24.9639,688
24.9741,672
24.9843,672
24.9945,651
25.0047,698
25.0149,716
25.0251,690
25.0353,706
25.0455,681
25.0557,763
25.0659,672
25.076,737
25.0862,663
25.0964,692
25.1066,693
25.1168,736
25.127,675
25.1372,740
25.1474,667
25.1576,681
25.1678,713
25.178,722
25.1882,779
25.1984,718
25.2086,713
25.2187,737
25.2289,764
25.2391,728
25.2493,776
25.2595,758
25.2697,743
25.2799,783
25.2901,734
25.3003,790
25.3105,796
25.3207,802
25.3309,774
25.3411,696
25.3513,742
25.3614,771
25.3716,772
25.3818,756
25.392,743
25.4022,781
25.4124,764
25.4226,860
25.4328,757
25.443,783
25.4532,797
25.4634,774
25.4736,839
25.4838,770
25.494,792
25.5041,752
25.5143,777
25.5245,800
25.5347,845
25.5449,780
25.5551,824
25.5653,797
25.5755,821
25.5857,821
25.5959,834
25.6061,803
25.6163,848
25.6265,841
25.6367,802
25.6468,860
25.657,804
25.6672,835
25.6774,811
25.6876,801
25.6978,872
25.708,852
25.7182,813
25.7284,831
25.7386,819
25.7488,825
25.759,876
25.7692,851
25.7794,877
25.7895,856
25.7997,887
25.8099,865
25.8201,905
25.8303,869
25.8405,884
25.8507,874
25.8609,866
25.8711,905
25.8813,910
25.8915,932
25.9017,887
25.9119,866
25.9221,920
25.9322,905
25.9424,881
25.9526,952
25.9628,956
25.973,921
25.9832,921
25.9934,936
26.0036,874
26.0138,923
26.024,900
26.0342,938
26.0444,922
26.0546,936
26.0648,976
26.075,965
26.0851,933
26.0953,908
26.1055,918
26.1157,955
26.1259,995
26.1361,893
26.1463,989
26.1565,967
26.1667,940
26.1769,1043
26.1871,981
26.1973,978
26.2075,956
26.2177,1036
26.2278,999
26.238,948
26.2482,1021
26.2584,950
26.2686,932
26.2788,989
26.289,1016
26.2992,1016
26.3094,971
26.3196,1079
26.3298,1001
26.34,1041
26.3502,1041
26.3604,956
26.3705,979
26.3807,1034
26.3909,1067
26.4011,1031
26.4113,1032
26.4215,1048
26.4317,1002
26.4419,1004
26.4521,1107
26.4623,1074
26.4725,1003
26.4827,1131
26.4929,1048
26.5031,1095
26.5132,1108
26.5234,1073
26.5336,1104
26.5438,1108
26.554,1078
26.5642,1107
26.5744,1010
26.5846,1105
26.5948,1041
26.605,1124
26.6152,1158
26.6254,1049
26.6356,1105
26.6458,1094
26.6559,1139
26.6661,1125
26.6763,1134
26.6865,1144
26.6967,1131
26.7069,1162
26.7171,1085
26.7273,1181
26.7375,1086
26.7477,1168
26.7579,1129
26.7681,1167
26.7783,1123
26.7885,1165
26.7986,1123
26.8088,1152
26.819,1154
26.8292,1171
26.8394,1203
26.8496,1151
26.8598,1158
26.87,1190
26.8802,1243
26.8904,1215
26.9006,1231
26.9108,1174
26.921,1226
26.9312,1185
26.9413,1247
26.9515,1182
26.9617,1182
26.9719,1236
26.9821,1258
26.9923,1221
27.0025,1189
27.0127,1251
27.0229,1281
27.0331,1212
27.0433,1252
27.0535,1258
27.0637,1267
27.0739,1238
27.084,1268
27.0942,1270
27.1044,1215
27.1146,1302
27.1248,1305
27.135,1245
27.1452,1284
27.1554,1270
27.1656,1208
27.1758,1343
27.186,1322
27.1962,1246
27.2064,1309
27.2166,1279
27.2267,1367
27.2369,1328
27.2471,1330
27.2573,1290
27.2675,1315
27.2777,1352
27.2879,1321
27.2981,1302
27.3083,1291
27.3185,1338
27.3287,1410
27.3389,1380
27.3491,1375
27.3593,1412
27.3694,1319
27.3796,1332
27.3898,1306
27.4,1378
27.4102,1353
27.4204,1334
27.4306,1314
27.4408,1416
27.451,1288
27.4612,1371
27.4714,1380
27.4816,1406
27.4918,1391
27.502,1437
27.5121,1412
27.5223,1382
27.5325,1498
27.5427,1408
27.5529,1391
27.5631,1369
27.5733,1460
27.5835,1435
27.5937,1492
27.6039,1415
27.6141,1411
27.6243,1462
27.6345,1403
27.6447,1442
27.6548,1436
27.665,1451
27.6752,1430
27.6854,1505
27.6956,1420
27.7058,1500
27.716,1485
27.7262,1463
27.7364,1466
27.7466,1481
27.7568,1452
27.767,1489
27.7772,1490
27.7874,1439
27.7975,1538
27.8077,1476
27.8179,1560
27.8281,1518
27.8383,1514
27.8485,1493
27.8587,1558
27.8689,1516
27.8791,1525
27.8893,1553
27.8995,1504
27.9097,1585
27.9199,1537
27.9301,1592
27.9402,1521
27.9504,1598
27.9606,1598
27.9708,1526
27.981,1595
27.9912,1536
28.0014,1594
28.0116,1561
28.0218,1599
28.032,1617
28.0422,1575
28.0524,1589
28.0626,1631
28.0728,1656
28.0829,1588
28.0931,1551
28.1033,1633
28.1135,1681
28.1237,1602
28.1339,1614
28.1441,1586
28.1543,1626
28.1645,1686
28.1747,1698
28.1849,1622
28.1951,1587
28.2053,1610
28.2155,1711
28.2256,1652
28.2358,1678
28.246,1657
28.2562,1647
28.2664,1665
28.2766,1672
28.2868,1705
28.297,1675
28.3072,1702
28.3174,1675
28.3276,1745
28.3378,1656
28.348,1686
28.3582,1709
28.3683,1763
28.3785,1760
28.3887,1712
28.3989,1718
28.4091,1696
28.4193,1763
28.4295,1768
28.4397,1789
28.4499,1824
28.4601,1751
28.4703,1713
28.4805,1731
28.4907,1756
28.5009,1704
28.511,1749
28.5212,1818
28.5314,1752
28.5416,1765
28.5518,1706
28.562,1862
28.5722,1727
28.5824,1713
28.5926,1809
28.6028,1842
28.613,1806
28.6232,1803
28.6334,1757
28.6436,1824
28.6537,1824
28.6639,1772
28.6741,1819
28.6843,1862
28.6945,1872
28.7047,1883
28.7149,1867
28.7251,1788
28.7353,1843
28.7455,1880
28.7557,1823
28.7659,1869
28.7761,1879
28.7863,1861
28.7964,1738
28.8066,1819
28.8168,1871
28.827,1854
28.8372,1816
28.8474,1917
28.8576,1833
28.8678,1853
28.878,1898
28.8882,1828
28.8984,1897
28.9086,1877
28.9188,1922
28.929,1909
28.9391,1896
28.9493,1921
28.9595,1956
28.9697,1900
28.9799,2029
28.9901,1975
29.0003,1901
29.0105,1909
29.0207,1838
29.0309,1911
29.0411,1953
29.0513,1964
29.0615,1916
29.0717,1914
29.0818,1915
29.092,1931
29.1022,2005
29.1124,2009
29.1226,1924
29.1328,1983
29.143,1918
29.1532,2038
29.1634,2043
29.1736,1985
29.1838,1914
29.194,1976
29.2042,1870
29.2144,1962
29.2245,1950
29.2347,1908
29.2449,1949
29.2551,2003
29.2653,1991
29.2755,1998
29.2857,1990
29.2959,2113
29.3061,2062
29.3163,2001
29.3265,2068
29.3367,2031
29.3469,2042
29.3571,2027
29.3672,2026
29.3774,1988
29.3876,1974
29.3978,2077
29.408,2087
29.4182,2093
29.4284,2073
29.4386,1981
29.4488,2137
29.459,2068
29.4692,2031
29.4794,2039
29.4896,2139
29.4998,2092
29.5099,2089
29.5201,2127
29.5303,2014
29.5405,2036
29.5507,2035
29.5609,1956
29.5711,2050
29.5813,2030
29.5915,2226
29.6017,2168
29.6119,2124
29.6221,2049
29.6323,2085
29.6425,2151
29.6526,2164
29.6628,2129
29.673,2089
29.6832,2040
29.6934,2130
29.7036,2117
29.7138,2151
29.724,2131
29.7342,2123
29.7444,2202
29.7546,2271
29.7648,2137
29.775,2112
29.7852,2215
29.7953,2138
29.8055,2096
29.8157,2074
29.8259,2105
29.8361,2095
29.8463,2187
29.8565,2105
29.8667,2154
29.8769,2235
29.8871,2206
29.8973,2182
29.9075,2261
29.9177,2220
29.9279,2188
29.938,2163
29.9482,2148
29.9584,2179
29.9686,2196
29.9788,2244
29.989,2222
29.9992,2302
30.0094,2257
30.0196,2126
30.0298,2244
30.04,2239
30.0502,2131
30.0604,2153
30.0706,2233
30.0807,2195
30.0909,2337
30.1011,2211
30.1113,2194
30.1215,2242
30.1317,2161
30.1419,2298
30.1521,2289
30.1623,2217
30.1725,2152
30.1827,2158
30.1929,2242
30.2031,2189
30.2133,2210
30.2234,2235
30.2336,2304
30.2438,2245
30.254,2173
30.2642,2284
30.2744,2288
30.2846,2243
30.2948,2123
30.305,2234
30.3152,2234
30.3254,2296
30.3356,2299
30.3458,2301
30.356,2196
30.3661,2325
30.3763,2325
30.3865,2306
30.3967,2327
30.4069,2300
30.4171,2217
30.4273,2313
30.4375,2284
30.4477,2343
30.4579,2336
30.4681,2301
30.4783,2380
30.4885,2280
30.4987,2206
30.5088,2322
30.519,2344
30.5292,2309
30.5394,2333
30.5496,2327
30.5598,2319
30.57,2316
30.5802,2287
30.5904,2286
30.6006,2352
30.6108,2245
30.621,2370
30.6312,2363
30.6414,2289
30.6515,2400
30.6617,2414
30.6719,2359
30.6821,2404
30.6923,2271
30.7025,2360
30.7127,2366
30.7229,2333
30.7331,2257
30.7433,2311
30.7535,2267
30.7637,2337
30.7739,2318
30.7841,2391
30.7942,2357
30.8044,2385
30.8146,2392
30.8248,2279
30.835,2303
30.8452,2346
30.8554,2422
30.8656,2377
30.8758,2329
30.886,2349
30.8962,2308
30.9064,2448
30.9166,2272
30.9268,2438
30.9369,2376
30.9471,2495
30.9573,2356
30.9675,2333
30.9777,2453
30.9879,2370
30.9981,2371
31.0083,2329
31.0185,2347
31.0287,2406
31.0389,2352
31.0491,2337
31.0593,2326
31.0695,2403
31.0796,2534
31.0898,2311
31.1,2425
31.1102,2419
31.1204,2393
31.1306,2383
31.1408,2457
31.151,2451
31.1612,2404
31.1714,2291
31.1816,2427
31.1918,2419
31.202,2328
31.2122,2343
31.2223,2479
31.2325,2323
31.2427,2375
31.2529,2397
31.2631,2435
31.2733,2447
31.2835,2424
31.2937,2354
31.3039,2317
31.3141,2339
31.3243,2357
31.3345,2405
31.3447,2372
31.3549,2308
31.365,2405
31.3752,2364
31.3854,2407
31.3956,2370
31.4058,2444
31.416,2443
31.4262,2392
31.4364,2431
31.4466,2493
31.4568,2415
31.467,2402
31.4772,2400
31.4874,2388
31.4976,2386
31.5077,2422
31.5179,2419
31.5281,2424
31.5383,2372
31.5485,2391
31.5587,2421
31.5689,2402
31.5791,2389
31.5893,2413
31.5995,2444
31.6097,2425
31.6199,2383
31.6301,2419
31.6403,2384
31.6504,2397
31.6606,2408
31.6708,2371
31.681,2447
31.6912,2450
31.7014,2451
31.7116,2398
31.7218,2268
31.732,2351
31.7422,2349
31.7524,2385
31.7626,2452
31.7728,2451
31.783,2426
31.7931,2411
31.8033,2375
31.8135,2316
31.8237,2330
31.8339,2455
31.8441,2361
31.8543,2340
31.8645,2495
31.8747,2344
31.8849,2415
31.8951,2451
31.9053,2362
31.9155,2352
31.9257,2367
31.9359,2352
31.946,2385
31.9562,2343
31.9664,2406
31.9766,2404
31.9868,2437
31.997,2405
32.0072,2320
32.0174,2459
32.0276,2432
32.0378,2415
32.048,2368
32.0582,2421
32.0684,2402
32.0786,2480
32.0887,2342
32.0989,2349
32.1091,2348
32.1193,2390
32.1295,2373
32.1397,2414
32.1499,2441
32.1601,2382
32.1703,2412
32.1805,2372
32.1907,2372
32.2009,2386
32.2111,2311
32.2213,2338
32.2314,2445
32.2416,2334
32.2518,2422
32.262,2335
32.2722,2295
32.2824,2387
32.2926,2359
32.3028,2336
32.313,2320
32.3232,2343
32.3334,2362
32.3436,2428
32.3538,2404
32.364,2337
32.3741,2324
32.3843,2386
32.3945,2398
32.4047,2325
32.4149,2333
32.4251,2396
32.4353,2310
32.4455,2349
32.4557,2423
32.4659,2318
32.4761,2301
32.4863,2350
32.4965,2339
32.5067,2339
32.5168,2414
32.527,2310
32.5372,2317
32.5474,2398
32.5576,2314
32.5678,2305
32.578,2281
32.5882,2339
32.5984,2303
32.6086,2394
32.6188,2386
32.629,2309
32.6392,2317
32.6494,2277
32.6595,2418
32.6697,2267
32.6799,2315
32.6901,2215
32.7003,2305
32.7105,2348
32.7207,2297
32.7309,2256
32.7411,2318
32.7513,2368
32.7615,2255
32.7717,2386
32.7819,2251
32.7921,2285
32.8022,2377
32.8124,2296
32.8226,2324
32.8328,2393
32.843,2307
32.8532,2242
32.8634,2297
32.8736,2260
32.8838,2382
32.894,2239
32.9042,2352
32.9144,2248
32.9246,2287
32.9348,2375
32.9449,2332
32.9551,2282
32.9653,2365
32.9755,2360
32.9857,2217
32.9959,2218
33.0061,2284
33.0163,2259
33.0265,2321
33.0367,2272
33.0469,2251
33.0571,2284
33.0673,2292
33.0775,2285
33.0876,2303
33.0978,2243
33.108,2268
33.1182,2205
33.1284,2235
33.1386,2208
33.1488,2303
33.159,2211
33.1692,2255
33.1794,2265
33.1896,2199
33.1998,2262
33.21,2192
33.2202,2268
33.2303,2241
33.2405,2221
33.2507,2283
33.2609,2213
33.2711,2321
33.2813,2233
33.2915,2096
33.3017,2243
33.3119,2234
33.3221,2239
33.3323,2203
33.3425,2300
33.3527,2256
33.3629,2278
33.373,2197
33.3832,2166
33.3934,2183
33.4036,2218
33.4138,2148
33.424,2149
33.4342,2261
33.4444,2208
33.4546,2235
33.4648,2199
33.475,2156
33.4852,2196
33.4954,2210
33.5056,2226
33.5157,2254
33.5259,2261
33.5361,2183
33.5463,2271
33.5565,2243
33.5667,2192
33.5769,2204
33.5871,2213
33.5973,2196
33.6075,2105
33.6177,2248
33.6279,2263
33.6381,2210
33.6483,2125
33.6584,2151
33.6686,2145
33.6788,2077
33.689,2158
33.6992,2122
33.7094,2116
33.7196,2117
33.7298,2130
33.74,2064
33.7502,2120
33.7604,2180
33.7706,2073
33.7808,2106
33.791,2125
33.8011,2175
33.8113,2191
33.8215,2167
33.8317,2137
33.8419,2098
33.8521,2149
33.8623,2172
33.8725,2185
33.8827,2110
33.8929,2163
33.9031,2265
33.9133,2097
33.9235,2097
33.9337,2135
33.9438,2104
33.954,2094
33.9642,2126
33.9744,2150
33.9846,2065
33.9948,2143
34.005,2100
34.0152,2119
34.0254,2092
34.0356,2092
34.0458,2149
34.056,2092
34.0662,2112
34.0764,2047
34.0865,2078
34.0967,2161
34.1069,2159
34.1171,2129
34.1273,2134
34.1375,2010
34.1477,2132
34.1579,2084
34.1681,2094
34.1783,2119
34.1885,1993
34.1987,2065
34.2089,2076
34.2191,2066
34.2292,2096
34.2394,2108
34.2496,2153
34.2598,2082
34.27,2063
34.2802,2046
34.2904,2067
34.3006,2001
34.3108,2013
34.321,2038
34.3312,2058
34.3414,2096
34.3516,2080
34.3618,2073
34.3719,2086
34.3821,1998
34.3923,2123
34.4025,2089
34.4127,2002
34.4229,2105
34.4331,2001
34.4433,2001
34.4535,2139
34.4637,2032
34.4739,2096
34.4841,1983
34.4943,2045
34.5045,1971
34.5146,2049
34.5248,2106
34.535,2128
34.5452,2043
34.5554,2067
34.5656,1930
34.5758,1963
34.586,2119
34.5962,1979
34.6064,1988
34.6166,2091
34.6268,2030
34.637,2095
34.6472,1968
34.6573,2029
34.6675,2025
34.6777,1934
34.6879,1956
34.6981,2024
34.7083,1992
34.7185,2006
34.7287,2002
34.7389,2038
34.7491,2035
34.7593,1962
34.7695,1936
34.7797,2003
34.7899,2051
34.8,1953
34.8102,2003
34.8204,1979
34.8306,2001
34.8408,1935
34.851,1927
34.8612,1989
34.8714,1965
34.8816,2015
34.8918,2006
34.902,1998
34.9122,1981
34.9224,1933
34.9326,1980
34.9427,1916
34.9529,1909
34.9631,1953
34.9733,1928
34.9835,1938
34.9937,2009
35.0039,1946
35.0141,1988
35.0243,1979
35.0345,1914
35.0447,1943
35.0549,1871
35.0651,1925
35.0753,1959
35.0854,2039
35.0956,1934
35.1058,2008
