theta (500C),intensity (500C)
0.2135,-1608.67419
0.21892,-1604.99548
0.22435,-1602.88565
0.22978,-1599.35658
0.2352,-1599.62799
0.24063,-1597.41727
0.24605,-1597.61551
0.25148,-1595.61911
0.25691,-1595.07098
0.26233,-1592.99966
0.26776,-1591.76162
0.27318,-1590.21854
0.27861,-1589.30716
0.28404,-1587.6226
0.28946,-1586.65901
0.29489,-1585.63364
0.30031,-1585.11449
0.30574,-1584.26538
0.31117,-1583.29964
0.31659,-1582.11291
0.32202,-1580.68665
0.32744,-1579.87384
0.33287,-1578.61845
0.3383,-1578.40703
0.34372,-1577.99796
0.34915,-1577.45678
0.35458,-1576.0295
0.36,-1575.28999
0.36543,-1574.077
0.37085,-1573.20006
0.37628,-1571.75711
0.38171,-1569.93275
0.38713,-1566.78571
0.39256,-1562.03082
0.39798,-1553.93178
0.40341,-1539.1014
0.40884,-1522.39285
0.41426,-1495.70538
0.41969,-1466.27161
0.42511,-1430.6591
0.43054,-1398.24729
0.43597,-1358.76177
0.44139,-1325.26574
0.44682,-1284.66253
0.45224,-1263.62533
0.45767,-1237.03423
0.4631,-1219.19659
0.46852,-1188.19283
0.47395,-1175.74447
0.47937,-1162.49044
0.4848,-1158.47137
0.49023,-1152.36846
0.49565,-1152.95144
0.50108,-1155.23101
0.5065,-1159.06646
0.51193,-1163.66799
0.51736,-1171.62612
0.52278,-1182.98415
0.52821,-1190.21395
0.53363,-1199.63152
0.53906,-1203.63277
0.54449,-1214.69723
0.54991,-1219.4212
0.55534,-1230.19143
0.56076,-1233.32949
0.56619,-1243.07656
0.57162,-1246.16119
0.57704,-1254.14837
0.58247,-1257.85607
0.58789,-1264.4096
0.59332,-1268.32735
0.59875,-1274.5715
0.60417,-1278.32327
0.6096,-1283.60812
0.61502,-1286.49038
0.62045,-1292.12847
0.62588,-1298.01263
0.6313,-1304.82345
0.63673,-1310.25195
0.64215,-1316.7702
0.64758,-1322.23837
0.65301,-1327.96832
0.65843,-1333.88808
0.66386,-1340.17812
0.66928,-1346.39184
0.67471,-1352.21169
0.68014,-1358.06158
0.68556,-1363.49091
0.69099,-1368.97024
0.69641,-1374.06472
0.70184,-1378.56742
0.70727,-1382.78048
0.71269,-1387.0409
0.71812,-1391.22865
0.72355,-1395.13532
0.72897,-1399.01456
0.7344,-1402.64314
0.73982,-1406.58079
0.74525,-1410.17361
0.75068,-1413.36901
0.7561,-1416.42304
0.76153,-1419.71954
0.76695,-1422.78365
0.77238,-1425.73075
0.77781,-1428.58077
0.78323,-1431.27396
0.78866,-1433.71334
0.79408,-1436.30544
0.79951,-1438.75597
0.80494,-1441.40624
0.81036,-1443.7472
0.81579,-1445.79235
0.82121,-1447.57562
0.82664,-1449.75596
0.83207,-1452.01681
0.83749,-1453.81515
0.84292,-1455.52108
0.84834,-1457.12713
0.85377,-1458.76661
0.8592,-1460.42873
0.86462,-1462.18262
0.87005,-1463.84641
0.87547,-1465.37357
0.8809,-1466.8359
0.88633,-1468.25916
0.89175,-1469.5505
0.89718,-1471.02636
0.9026,-1472.56709
0.90803,-1474.11341
0.91346,-1475.21555
0.91888,-1476.37168
0.92431,-1477.8119
0.92973,-1479.13058
0.93516,-1480.10139
0.94059,-1481.21571
0.94601,-1482.05938
0.95144,-1483.06689
0.95686,-1483.96593
0.96229,-1485.01914
0.96772,-1485.83189
0.97314,-1486.70214
0.97857,-1487.4103
0.98399,-1488.09248
0.98942,-1489.00805
0.99485,-1489.86878
1.00027,-1490.87965
1.0057,-1491.68938
1.01112,-1492.31423
1.01655,-1493.3038
1.02198,-1494.09876
1.0274,-1494.83939
1.03283,-1495.18515
1.03825,-1495.55458
1.04368,-1495.93572
1.04911,-1496.36346
1.05453,-1496.9118
1.05996,-1497.41878
1.06539,-1498.27504
1.07081,-1499.21652
1.07624,-1499.835
1.08166,-1500.51264
1.08709,-1501.12724
1.09252,-1501.78005
1.09794,-1502.4657
1.10337,-1502.96158
1.10879,-1503.38557
1.11422,-1503.76494
1.11965,-1504.50941
1.12507,-1505.1303
1.1305,-1505.58749
1.13592,-1506.02815
1.14135,-1506.33364
1.14678,-1506.66398
1.1522,-1507.1987
1.15763,-1507.83357
1.16305,-1508.40726
1.16848,-1508.7676
1.17391,-1509.14655
1.17933,-1509.37083
1.18476,-1509.64289
1.19018,-1509.85486
1.19561,-1510.06874
1.20104,-1510.41869
1.20646,-1510.57914
1.21189,-1510.81499
1.21731,-1510.94164
1.22274,-1511.39131
1.22817,-1511.5352
1.23359,-1511.82793
1.23902,-1512.26442
1.24444,-1512.65552
1.24987,-1512.81081
1.2553,-1513.09651
1.26072,-1513.39104
1.26615,-1513.70538
1.27157,-1513.97349
1.277,-1514.56339
1.28243,-1515.01897
1.28785,-1515.14825
1.29328,-1515.35744
1.2987,-1515.66485
1.30413,-1516.01928
1.30956,-1515.98566
1.31498,-1516.08892
1.32041,-1516.1438
1.32583,-1516.54729
1.33126,-1516.85877
1.33669,-1517.21513
1.34211,-1517.46822
1.34754,-1517.71084
1.35296,-1517.67674
1.35839,-1517.86703
1.36382,-1518.14378
1.36924,-1518.54591
1.37467,-1518.83975
1.38009,-1518.98012
1.38552,-1519.18465
1.39095,-1519.3076
1.39637,-1519.40949
1.4018,-1519.54382
1.40722,-1519.75959
1.41265,-1519.7853
1.41808,-1519.90749
1.4235,-1520.1772
1.42893,-1520.44636
1.43436,-1520.45677
1.43978,-1520.45071
1.44521,-1520.41789
1.45063,-1520.63191
1.45606,-1520.9153
1.46149,-1521.18808
1.46691,-1521.40939
1.47234,-1521.40209
1.47776,-1521.46946
1.48319,-1521.5802
1.48862,-1521.74094
1.49404,-1521.74907
1.49947,-1521.86088
1.50489,-1522.08189
1.51032,-1522.27557
1.51575,-1522.40233
1.52117,-1522.41839
1.5266,-1522.28778
1.53202,-1522.3429
1.53745,-1522.59102
1.54288,-1522.77331
1.5483,-1522.91986
1.55373,-1522.90378
1.55915,-1523.075
1.56458,-1523.21158
1.57001,-1523.27878
1.57543,-1523.32873
1.58086,-1523.32841
1.58628,-1523.44099
1.59171,-1523.57035
1.59714,-1523.74454
1.60256,-1523.76044
1.60799,-1523.85167
1.61341,-1523.94854
1.61884,-1523.98798
1.62427,-1524.03565
1.62969,-1524.03239
1.63512,-1524.10242
1.64054,-1524.17203
1.64597,-1524.2597
1.6514,-1524.28152
1.65682,-1524.3269
1.66225,-1524.39177
1.66767,-1524.42454
1.6731,-1524.44026
1.67853,-1524.38528
1.68395,-1524.49465
1.68938,-1524.66261
1.6948,-1524.77428
1.70023,-1524.80469
1.70566,-1524.79515
1.71108,-1524.86108
1.71651,-1524.96822
1.72193,-1525.18223
1.72736,-1525.17122
1.73279,-1525.32375
1.73821,-1525.47076
1.74364,-1525.50371
1.74906,-1525.34269
1.75449,-1525.33828
1.75992,-1525.46635
1.76534,-1525.57426
1.77077,-1525.45193
1.77619,-1525.51003
1.78162,-1525.68398
1.78705,-1525.84051
1.79247,-1525.91616
1.7979,-1525.7561
1.80333,-1525.662
1.80875,-1525.61064
1.81418,-1525.54466
1.8196,-1525.47784
1.82503,-1525.55428
1.83046,-1525.62734
1.83588,-1525.62563
1.84131,-1525.46272
1.84673,-1525.62377
1.85216,-1525.73553
1.85759,-1525.83592
1.86301,-1525.68895
1.86844,-1525.61543
1.87386,-1525.5301
1.87929,-1525.49911
1.88472,-1525.39093
1.89014,-1525.58868
1.89557,-1525.66757
1.90099,-1525.66071
1.90642,-1525.58657
1.91185,-1525.60104
1.91727,-1525.66006
1.9227,-1525.64272
1.92812,-1525.65844
1.93355,-1525.48263
1.93898,-1525.51725
1.9444,-1525.5041
1.94983,-1525.56931
1.95525,-1525.56918
1.96068,-1525.64876
1.96611,-1525.4731
1.97153,-1525.33293
1.97696,-1525.34531
1.98238,-1525.37439
1.98781,-1525.27023
1.99324,-1525.06556
1.99866,-1525.00431
2.00409,-1524.90251
2.00951,-1524.86872
2.01494,-1524.87529
2.02037,-1524.83336
2.02579,-1524.76786
2.03122,-1524.74181
2.03664,-1524.71127
2.04207,-1524.80869
2.0475,-1524.95098
2.05292,-1524.92777
2.05835,-1524.72122
2.06377,-1524.72778
2.0692,-1524.74988
2.07463,-1524.81943
2.08005,-1524.94099
2.08548,-1525.0144
2.0909,-1525.1518
2.09633,-1525.12497
2.10176,-1525.1714
2.10718,-1525.05985
2.11261,-1525.15855
2.11803,-1525.10648
2.12346,-1525.12595
2.12889,-1525.07006
2.13431,-1525.00567
2.13974,-1525.00723
2.14516,-1525.161
2.15059,-1525.25863
2.15602,-1525.28318
2.16144,-1525.24471
2.16687,-1525.18253
2.1723,-1525.17106
2.17772,-1525.10269
2.18315,-1525.02216
2.18857,-1525.07074
2.194,-1525.20124
2.19943,-1525.04629
2.20485,-1524.95185
2.21028,-1524.8289
2.2157,-1525.02496
2.22113,-1525.03714
2.22656,-1525.03965
2.23198,-1524.8057
2.23741,-1524.62473
2.24283,-1524.44853
2.24826,-1524.39779
2.25369,-1524.47108
2.25911,-1524.42212
2.26454,-1524.34628
2.26996,-1524.25066
2.27539,-1524.27808
2.28082,-1524.14641
2.28624,-1523.94058
2.29167,-1523.83847
2.29709,-1523.88686
2.30252,-1523.81483
2.30795,-1523.70833
2.31337,-1523.58678
2.3188,-1523.54787
2.32422,-1523.4734
2.32965,-1523.34718
2.33508,-1523.24678
2.3405,-1523.23103
2.34593,-1523.22508
2.35135,-1523.0667
2.35678,-1522.95763
2.36221,-1522.84516
2.36763,-1522.61227
2.37306,-1522.43399
2.37848,-1522.28935
2.38391,-1522.10539
2.38934,-1522.01945
2.39476,-1521.88264
2.40019,-1521.67239
2.40561,-1521.36779
2.41104,-1521.21139
2.41647,-1520.99778
2.42189,-1520.92497
2.42732,-1520.65327
2.43274,-1520.31537
2.43817,-1520.11183
2.4436,-1519.96783
2.44902,-1519.75123
2.45445,-1519.41757
2.45987,-1519.16859
2.4653,-1518.87856
2.47073,-1518.52371
2.47615,-1518.18514
2.48158,-1517.96101
2.487,-1517.61472
2.49243,-1517.23543
2.49786,-1516.79709
2.50328,-1516.48231
2.50871,-1516.19995
2.51414,-1515.87766
2.51956,-1515.48724
2.52499,-1515.05727
2.53041,-1514.68262
2.53584,-1514.31541
2.54127,-1513.88108
2.54669,-1513.3719
2.55212,-1512.81979
2.55754,-1512.27941
2.56297,-1511.73874
2.5684,-1511.27018
2.57382,-1510.87388
2.57925,-1510.31637
2.58467,-1509.71922
2.5901,-1509.08036
2.59553,-1508.48349
2.60095,-1507.87124
2.60638,-1507.20607
2.6118,-1506.32924
2.61723,-1505.63251
2.62266,-1504.90551
2.62808,-1504.2691
2.63351,-1503.4344
2.63893,-1502.63618
2.64436,-1501.79174
2.64979,-1500.98519
2.65521,-1500.13061
2.66064,-1499.08434
2.66606,-1498.10414
2.67149,-1496.99355
2.67692,-1495.87157
2.68234,-1494.60292
2.68777,-1493.31706
2.69319,-1492.02792
2.69862,-1490.67272
2.70405,-1489.16758
2.70947,-1487.63319
2.7149,-1486.11481
2.72032,-1484.51675
2.72575,-1482.71546
2.73118,-1480.87988
2.7366,-1478.9683
2.74203,-1476.92013
2.74745,-1474.75518
2.75288,-1472.33276
2.75831,-1469.884
2.76373,-1467.23289
2.76916,-1464.2326
2.77458,-1461.06301
2.78001,-1457.79717
2.78544,-1454.32046
2.79086,-1450.6789
2.79629,-1446.63262
2.80171,-1442.28825
2.80714,-1437.43139
2.81257,-1432.28271
2.81799,-1426.78396
2.82342,-1420.92779
2.82884,-1414.47948
2.83427,-1407.77991
2.8397,-1400.34721
2.84512,-1392.40771
2.85055,-1383.50446
2.85597,-1373.96832
2.8614,-1363.39681
2.86683,-1352.18633
2.87225,-1339.7066
2.87768,-1326.15069
2.88311,-1311.16335
2.88853,-1294.73129
2.89396,-1276.99441
2.89938,-1257.47054
2.90481,-1236.26281
2.91024,-1212.05636
2.91566,-1186.37899
2.92109,-1157.22585
2.92651,-1125.91579
2.93194,-1091.43249
2.93737,-1054.5924
2.94279,-1012.83324
2.94822,-969.15978
2.95364,-920.67663
2.95907,-869.77734
2.9645,-814.32067
2.96992,-756.04125
2.97535,-694.79375
2.98077,-632.15478
2.9862,-567.22521
2.99163,-501.79418
2.99705,-436.45654
3.00248,-371.4154
3.0079,-308.63683
3.01333,-250.60143
3.01876,-196.71545
3.02418,-150.82201
3.02961,-110.2069
3.03503,-78.86437
3.04046,-55.53149
3.04589,-43.17089
3.05131,-38.20873
3.05674,-46.35741
3.06216,-61.82482
3.06759,-89.34655
3.07302,-123.5902
3.07844,-166.73913
3.08387,-216.59728
3.08929,-273.03564
3.09472,-333.44982
3.10015,-396.93346
3.10557,-463.083
3.111,-528.96508
3.11642,-596.22674
3.12185,-661.68108
3.12728,-725.45043
3.1327,-786.87066
3.13813,-843.71441
3.14355,-896.55071
3.14898,-947.096
3.15441,-993.54961
3.15983,-1036.37682
3.16526,-1075.88012
3.17068,-1111.84606
3.17611,-1145.22039
3.18154,-1175.93551
3.18696,-1203.15505
3.19239,-1226.94674
3.19781,-1248.29223
3.20324,-1268.30416
3.20867,-1286.48104
3.21409,-1302.60708
3.21952,-1317.21471
3.22494,-1330.3886
3.23037,-1342.7304
3.2358,-1353.74233
3.24122,-1363.60244
3.24665,-1372.74689
3.25208,-1380.85041
3.2575,-1388.23006
3.26293,-1394.77166
3.26835,-1400.7486
3.27378,-1405.97938
3.27921,-1410.64626
3.28463,-1414.97384
3.29006,-1418.77001
3.29548,-1421.97166
3.30091,-1424.46256
3.30634,-1426.46639
3.31176,-1428.19537
3.31719,-1429.66105
3.32261,-1430.62432
3.32804,-1431.13361
3.33347,-1431.10333
3.33889,-1430.82822
3.34432,-1430.07281
3.34974,-1428.95531
3.35517,-1427.28263
3.3606,-1425.28695
3.36602,-1422.53948
3.37145,-1419.36134
3.37687,-1415.40276
3.3823,-1410.81847
3.38773,-1405.38427
3.39315,-1399.6303
3.39858,-1392.8065
3.404,-1385.13142
3.40943,-1376.46427
3.41486,-1367.02529
3.42028,-1356.36993
3.42571,-1344.71294
3.43113,-1332.22369
3.43656,-1318.78704
3.44199,-1304.50268
3.44741,-1288.73067
3.45284,-1272.36364
3.45826,-1255.68948
3.46369,-1238.81835
3.46912,-1221.90725
3.47454,-1205.40569
3.47997,-1189.3991
3.48539,-1174.34863
3.49082,-1160.63735
3.49625,-1148.19512
3.50167,-1138.0685
3.5071,-1130.11852
3.51252,-1124.87338
3.51795,-1122.02581
3.52338,-1122.08529
3.5288,-1124.42715
3.53423,-1129.68798
3.53965,-1137.52245
3.54508,-1147.58562
3.55051,-1160.14709
3.55593,-1174.19772
3.56136,-1190.01391
3.56678,-1206.71087
3.57221,-1224.46136
3.57764,-1242.30651
3.58306,-1260.50536
3.58849,-1278.22872
3.59392,-1295.84582
3.59934,-1312.76501
3.60477,-1328.99184
3.61019,-1344.45559
3.61562,-1358.7665
3.62105,-1372.13213
3.62647,-1384.33463
3.6319,-1395.8895
3.63732,-1406.15557
3.64275,-1415.47157
3.64818,-1423.95307
3.6536,-1431.894
3.65903,-1439.04446
3.66445,-1445.63291
3.66988,-1451.6175
3.67531,-1457.07082
3.68073,-1462.06176
3.68616,-1466.49177
3.69158,-1470.6681
3.69701,-1474.52096
3.70244,-1478.12333
3.70786,-1481.30157
3.71329,-1484.32688
3.71871,-1487.06269
3.72414,-1489.60252
3.72957,-1491.95033
3.73499,-1494.14359
3.74042,-1496.1483
3.74584,-1497.99587
3.75127,-1499.75387
3.7567,-1501.30744
3.76212,-1502.83596
3.76755,-1504.27078
3.77297,-1505.72236
3.7784,-1507.01436
3.78383,-1508.19878
3.78925,-1509.29391
3.79468,-1510.36069
3.8001,-1511.241
3.80553,-1512.17719
3.81096,-1513.02998
3.81638,-1513.8399
3.82181,-1514.55219
3.82723,-1515.22118
3.83266,-1515.85287
3.83809,-1516.56442
3.84351,-1517.17363
3.84894,-1517.7211
3.85436,-1518.16901
3.85979,-1518.67719
3.86522,-1519.21136
3.87064,-1519.68024
3.87607,-1520.07529
3.88149,-1520.38062
3.88692,-1520.78495
3.89235,-1521.07891
3.89777,-1521.42787
3.9032,-1521.74692
3.90862,-1522.10841
3.91405,-1522.52772
3.91948,-1522.83888
3.9249,-1523.03566
3.93033,-1523.29462
3.93575,-1523.61929
3.94118,-1524.01681
3.94661,-1524.24038
3.95203,-1524.35739
3.95746,-1524.5151
3.96289,-1524.8166
3.96831,-1525.07597
3.97374,-1525.25433
3.97916,-1525.38188
3.98459,-1525.54933
3.99002,-1525.73817
3.99544,-1526.00986
4.00087,-1526.24105
4.00629,-1526.42708
4.01172,-1526.46864
4.01715,-1526.46744
4.02257,-1526.50142
4.028,-1526.72356
4.03342,-1526.93662
4.03885,-1527.10399
4.04428,-1527.20615
4.0497,-1527.28864
4.05513,-1527.42678
4.06055,-1527.56453
4.06598,-1527.65756
4.07141,-1527.81943
4.07683,-1527.8307
4.08226,-1527.84479
4.08768,-1527.92184
4.09311,-1527.9848
4.09854,-1528.09071
4.10396,-1528.17565
4.10939,-1528.30337
4.11481,-1528.33338
4.12024,-1528.27795
4.12567,-1528.30779
4.13109,-1528.39659
4.13652,-1528.48587
4.14194,-1528.5548
4.14737,-1528.49129
4.1528,-1528.39111
4.15822,-1528.3783
4.16365,-1528.47963
4.16907,-1528.56437
4.1745,-1528.53246
4.17993,-1528.49197
4.18535,-1528.42482
4.19078,-1528.37493
4.1962,-1528.37732
4.20163,-1528.42483
4.20706,-1528.51806
4.21248,-1528.58974
4.21791,-1528.48074
4.22333,-1528.41876
4.22876,-1528.25953
4.23419,-1528.17841
4.23961,-1528.04479
4.24504,-1527.92367
4.25046,-1527.92865
4.25589,-1527.95375
4.26132,-1527.91502
4.26674,-1527.80866
4.27217,-1527.69011
4.27759,-1527.54597
4.28302,-1527.507
4.28845,-1527.43422
4.29387,-1527.33361
4.2993,-1527.27411
4.30472,-1527.15861
4.31015,-1527.03775
4.31558,-1526.975
4.321,-1526.92999
4.32643,-1526.85538
4.33186,-1526.74185
4.33728,-1526.64523
4.34271,-1526.49998
4.34813,-1526.33403
4.35356,-1526.18289
4.35899,-1526.04477
4.36441,-1525.96095
4.36984,-1525.78992
4.37526,-1525.68839
4.38069,-1525.43104
4.38612,-1525.291
4.39154,-1525.15044
4.39697,-1525.12752
4.40239,-1525.0415
4.40782,-1524.89628
4.41325,-1524.73204
4.41867,-1524.49061
4.4241,-1524.28117
4.42952,-1524.05727
4.43495,-1523.92485
4.44038,-1523.76363
4.4458,-1523.47187
4.45123,-1523.2403
4.45665,-1522.99419
4.46208,-1522.7896
4.46751,-1522.48748
4.47293,-1522.21503
4.47836,-1521.93498
4.48378,-1521.72988
4.48921,-1521.49371
4.49464,-1521.22931
4.50006,-1520.8032
4.50549,-1520.4704
4.51091,-1520.19518
4.51634,-1519.92564
4.52177,-1519.51375
4.52719,-1519.13213
4.53262,-1518.69069
4.53804,-1518.33365
4.54347,-1517.96912
4.5489,-1517.51086
4.55432,-1517.02413
4.55975,-1516.68453
4.56517,-1516.28565
4.5706,-1515.82696
4.57603,-1515.3702
4.58145,-1514.8839
4.58688,-1514.32218
4.5923,-1513.68407
4.59773,-1513.1395
4.60316,-1512.63293
4.60858,-1512.02734
4.61401,-1511.31353
4.61943,-1510.6435
4.62486,-1509.91807
4.63029,-1509.13139
4.63571,-1508.27619
4.64114,-1507.30791
4.64656,-1506.34397
4.65199,-1505.32751
4.65742,-1504.35558
4.66284,-1503.29949
4.66827,-1502.14066
4.67369,-1500.82014
4.67912,-1499.43363
4.68455,-1498.01913
4.68997,-1496.40537
4.6954,-1494.60815
4.70083,-1492.67204
4.70625,-1490.67767
4.71168,-1488.57929
4.7171,-1486.18652
4.72253,-1483.56236
4.72796,-1480.77828
4.73338,-1477.75912
4.73881,-1474.55131
4.74423,-1470.91972
4.74966,-1467.04728
4.75509,-1462.7591
4.76051,-1458.13929
4.76594,-1452.98989
4.77136,-1447.45579
4.77679,-1441.35574
4.78222,-1434.74175
4.78764,-1427.43563
4.79307,-1419.51893
4.79849,-1410.88023
4.80392,-1401.5557
4.80935,-1391.43555
4.81477,-1380.21986
4.8202,-1368.07821
4.82562,-1354.82293
4.83105,-1340.55224
4.83648,-1325.06045
4.8419,-1308.37908
4.84733,-1290.24755
4.85275,-1270.90347
4.85818,-1250.03085
4.86361,-1227.95846
4.86903,-1204.36034
4.87446,-1179.59017
4.87988,-1153.19216
4.88531,-1125.53109
4.89074,-1096.91509
4.89616,-1067.44219
4.90159,-1037.34716
4.90701,-1006.71026
4.91244,-975.77673
4.91787,-944.92889
4.92329,-914.86675
4.92872,-885.60815
4.93414,-857.95031
4.93957,-831.82793
4.945,-807.74712
4.95042,-786.63146
4.95585,-768.19024
4.96127,-752.92889
4.9667,-741.05352
4.97213,-733.393
4.97755,-729.18591
4.98298,-729.56585
4.9884,-733.35693
4.99383,-741.3941
4.99926,-752.85571
5.00468,-768.11211
5.01011,-786.45922
5.01553,-808.22906
5.02096,-832.54632
5.02639,-858.89208
5.03181,-887.07061
5.03724,-916.28307
5.04267,-946.75713
5.04809,-977.54455
5.05352,-1008.55248
5.05894,-1039.31792
5.06437,-1069.79974
5.0698,-1099.32323
5.07522,-1128.12255
5.08065,-1155.69772
5.08607,-1182.04345
5.0915,-1207.03744
5.09693,-1230.6979
5.10235,-1252.72131
5.10778,-1273.3644
5.1132,-1292.64611
5.11863,-1310.57006
5.12406,-1327.20351
5.12948,-1342.46203
5.13491,-1356.43636
5.14033,-1369.21789
5.14576,-1381.08141
5.15119,-1391.84977
5.15661,-1401.74679
5.16204,-1410.84373
5.16746,-1419.1614
5.17289,-1426.74096
5.17832,-1433.72048
5.18374,-1440.11105
5.18917,-1445.93809
5.19459,-1451.26264
5.20002,-1456.15313
5.20545,-1460.66836
5.21087,-1464.85128
5.2163,-1468.68382
5.22172,-1472.0666
5.22715,-1475.19382
5.23258,-1478.02551
5.238,-1480.75573
5.24343,-1483.23403
5.24885,-1485.45435
5.25428,-1487.42428
5.25971,-1489.3256
5.26513,-1491.09045
5.27056,-1492.77327
5.27598,-1494.30069
5.28141,-1495.62856
5.28684,-1496.74895
5.29226,-1497.8633
5.29769,-1498.95493
5.30311,-1499.85883
5.30854,-1500.65774
5.31397,-1501.50035
5.31939,-1502.21959
5.32482,-1502.84119
5.33024,-1503.40508
5.33567,-1503.9908
5.3411,-1504.55125
5.34652,-1504.92403
5.35195,-1505.26134
5.35737,-1505.56422
5.3628,-1505.8639
5.36823,-1506.15068
5.37365,-1506.39597
5.37908,-1506.55267
5.3845,-1506.70094
5.38993,-1506.8739
5.39536,-1507.00838
5.40078,-1507.11893
5.40621,-1507.11787
5.41164,-1507.03638
5.41706,-1506.94581
5.42249,-1506.89545
5.42791,-1506.81397
5.43334,-1506.6536
5.43877,-1506.52605
5.44419,-1506.30285
